# Result: 'acouPressure' on node(s) 'Outlet' number #123488
# f (Hz)  real (Pa)  imag (Pa)  
# ---------------------------------------------------------------------------
377  -12.688985887912461  -7.2772184992346052
397.289  -13.375963063704448  5.5153866754151668
417.577  -3.0083325693251832  16.132796913935
437.866  14.484449734473781  12.637805473533266
458.154  20.893598242420577  -8.9627885032859087
478.443  -1.6144020390003568  -25.066761312412144
498.732  -21.986175968879525  -6.6126543161582152
519.02  -13.600254545896288  14.68472351800049
539.309  5.3860754915632665  16.649847507710614
559.597  15.333731261797613  3.9505446297209419
579.886  10.736530929835983  -9.2649116834661456
600.174  -2.1612866266898423  -12.906859020008328
620.463  -11.728684799649578  -4.4695802484029219
640.752  -7.9097391245512734  6.8699277614987473
661.04  2.0476439211967357  7.7960702915762141
681.329  5.0792059229080708  2.2359368996510729
701.617  4.1159663102745006  -1.5235936161244226
721.906  1.4641894316756157  -3.0500525742674722
742.195  -0.88742911259591428  -3.1706189756396337
762.483  -2.7721540428262395  -1.363426442040514
782.772  -2.2525222168997656  1.0444939568749676
803.06  -0.79029144037839183  1.3725157464343463
823.349  -0.21005370157341496  1.3775577019581429
843.638  0.42299319940331137  1.5088542668932696
863.926  1.6319304320200263  1.4374865666427774
884.215  2.8133082440424464  -0.39735545710496234
904.503  1.6607423544864712  -2.9125448955859259
924.792  -0.65636986341333869  -3.2937858710227599
945.081  -3.0458695523344095  -2.6308826184933061
965.369  -5.1832057849095392  -0.092806981037713177
985.658  -4.864834922007411  5.5523641991039758
1005.95  2.3107729494604246  9.3924675793516812
1026.23  10.228956903388312  3.0011924967195127
1046.52  9.0776203515444784  -7.0142514415887227
1066.81  0.93632849766780113  -12.167312313068139
1087.1  -9.6718841184917519  -9.9965253193011705
1107.39  -17.225764237397716  1.8215446218598481
1127.68  -9.5427554664775744  18.645091951919657
1147.97  12.608824764173931  17.816382393196843
1168.26  22.031041284141214  0.34814118265213484
1188.54  14.085624486988701  -17.439618736818172
1208.83  -5.145231473052716  -23.268233593995788
1229.12  -23.791112403046629  -11.574100583988155
1249.41  -25.673816707688733  14.020848923303262
1269.7  -2.2517979878872865  31.571463986317681
1289.99  25.39227790788263  19.424723486861673
1310.28  29.554397086363505  -8.3757844424144974
1330.56  12.559980400940534  -28.173671393045346
1350.85  -14.568852927848287  -29.669869118776031
1371.14  -35.616664794076989  -5.9821630857035526
1391.43  -25.717431607748583  27.53414013079577
1411.72  7.351030940667048  36.641793010643006
1432.01  32.882549028976968  16.033608888178961
1452.3  33.388327761469505  -16.422399716474946
1472.58  7.6760187967983589  -36.497450660744796
1492.87  -24.276046640571924  -29.713660378775437
1513.16  -40.729562502338496  1.0374694968710454
1533.45  -23.488510737648635  35.948392749108699
1553.74  16.124194841901378  38.408185501510346
1574.03  38.521500008788195  10.758190065293357
1594.32  33.157232023797825  -22.312009215085435
1614.6  3.801423614982844  -42.090637680131557
1634.89  -33.585916165991634  -29.287745215045856
1655.18  -43.382092598584656  10.637757042703401
1675.47  -17.341186105408461  40.728205449874586
1695.76  22.053473668514123  38.413358716346295
1716.05  43.37881631197606  5.7028728166988483
1736.34  30.627881349787959  -30.410872556341847
1756.62  -4.2430002372157372  -43.888068540430545
1776.91  -38.621570016442689  -24.309103935152532
1797.2  -43.876118556709855  18.394738470265267
1817.49  -9.3548871686020334  44.72895694875757
1837.78  28.31642757551726  34.100606864681424
1858.07  44.817588723142251  -0.70514639576484051
1878.36  27.52454387994208  -37.186441664444494
1898.64  -14.555770819786268  -45.170714778320416
1918.93  -45.046260842678095  -14.620804764179658
1939.22  -38.583267928064025  27.1685487656795
1959.51  -1.2343813350213062  46.829369160245733
1979.8  37.020177030837374  27.911757939608517
2000.09  44.106058625819223  -11.840979386253993
2020.38  18.077923198900685  -42.684043308248413
2040.66  -24.692252399565156  -41.442304223328016
2060.95  -48.436657338298446  -3.2640549920352417
2081.24  -29.934373642031918  36.396447445072745
2101.53  10.077324817941697  45.053096355059211
2121.82  42.046728523869554  19.878142573982672
2142.11  41.63750109366319  -22.328546238435759
2162.4  6.7865126572431649  -46.683463879570567
2182.68  -33.539743399977667  -33.429097176834787
2202.97  -47.523562214570084  7.486438431553915
2223.26  -21.681754881152816  42.748727367323433
2243.55  21.566048821794439  41.728170994254668
2263.84  46.084518574115023  8.4508473402828077
2284.13  35.139868421577624  -31.6961877878121
2304.42  -5.3145227335228817  -47.715837355719977
2324.7  -41.514360863985694  -23.1274389570709
2344.99  -42.421610177243409  19.267498121994741
2365.28  -10.416816065373217  44.731446642588622
2385.57  29.445071876625974  35.503048060092418
2405.86  46.051807071018949  -1.508364484885401
2426.15  26.105537418387961  -37.818972311176388
2446.44  -13.693301961037744  -43.621067462111952
2466.72  -43.959970017751466  -15.192924546423008
2487.01  -38.085983849558453  25.756858906612166
2507.3  -3.1776245655143653  45.220000196622649
2527.59  33.458806981518968  30.764838899196917
2547.88  45.742691860561465  -7.594104913920928
2568.17  21.79458221096856  -41.551025382335467
2588.46  -20.159653714453398  -42.646289710841025
2608.74  -45.499564374486248  -9.5770474677598809
2629.03  -34.826545662231553  30.035532380541476
2649.32  0.18213890758447171  46.579949174572697
2669.61  37.281353817647513  28.834802673406401
2689.9  45.747589776520151  -12.085812151474808
2710.19  18.977358837169994  -44.308905167455549
2730.48  -23.440215440782758  -42.238188362473643
2750.77  -48.231881908806777  -6.8442664368490069
2771.05  -34.434631786691597  33.744303333948537
2791.34  5.478511731990821  47.678049109964235
2811.63  40.565743316741582  25.020251133233145
2831.92  44.119283629175648  -17.228381318441794
2852.21  12.891971417768932  -43.920147972684916
2872.5  -25.021906966956479  -36.646733916162056
2892.79  -43.836821229694628  -4.0143961808959858
2913.07  -30.401201730857526  31.252817737503428
2933.36  5.3534715651941278  42.959402531970611
2953.65  35.997417839546252  22.034731069245701
2973.94  39.189432987416737  -13.520430656832966
2994.23  14.65353642797149  -38.609897134335156
3014.52  -20.994343696566784  -35.239220796253349
3034.81  -39.630799790895708  -5.5518926414716896
3055.09  -29.117605073619469  26.20424758435621
3075.38  1.3440280533688025  38.770117940697446
3095.67  30.803223822249752  23.371168044720211
3115.96  36.977157412506457  -8.8839450275628504
3136.25  16.483255095544894  -33.55982317310913
3156.54  -14.71921589520533  -33.754403243906658
3176.83  -34.987411785313327  -10.709603518303231
3197.11  -31.525510484675266  19.329094425586401
3217.4  -4.9914010735625309  37.401730163713388
3237.69  26.230877078328831  28.104389160435463
3257.98  39.091891339141021  -2.6461574257863703
3278.27  22.864121366318304  -32.239364849538241
3298.56  -10.679228350803642  -38.720706296966178
3318.85  -36.368434993518285  -16.977197921212007
3339.13  -38.214867355506335  16.48075793539067
3359.42  -13.869154130915033  42.249328764438467
3379.71  23.960823461352494  41.685762049664561
3400  50.447703270772067  15.869949517620459
