# Result: 'acouPressure' on node(s) 'Outlet' number #123488
# f (Hz)  real (Pa)  imag (Pa)  
# ---------------------------------------------------------------------------
377  20.927596955857531  -9.4878510997374157
397.289  -5.3178808899031491  -16.816083442970353
417.577  -16.881851883757122  -0.40090399854533615
437.866  -6.0484027491973462  16.468538486972758
458.154  14.401209423822861  11.562070999937085
478.443  17.327675551638315  -11.395819517429411
498.732  -8.2888567867209098  -21.171086236076999
519.02  -21.900753184270954  5.2413625502888364
539.309  1.1633575452004474  20.033157260787121
559.597  17.166590429159609  3.4284421602319211
579.886  7.1973708526779863  -12.544984787243916
600.174  -7.8327699459938005  -8.9400238538655366
620.463  -9.9892042855463234  2.9854210246881299
640.752  -1.4806934347317784  9.1459259750674757
661.04  7.9851759308545311  3.7571504264291971
681.329  4.7329153070493222  -5.4347726345273877
701.617  -2.6171056838782274  -4.7337566808289209
721.906  -3.4439293905977801  0.12898517660397807
742.195  -1.6660938475645861  2.0891502409994063
762.483  0.27328972333242202  2.306135246215443
782.772  2.0001515091809963  1.2480644272273089
803.06  1.9594371423226344  -0.78810291670533283
823.349  0.43362475032650311  -1.914760809613828
843.638  -1.017097989732846  -1.3591803512305702
863.926  -1.6753448542156304  -0.33917628017577583
884.215  -1.6428313418239275  1.0539031660835489
904.503  -0.40036611221071394  2.8591098589042092
924.792  3.020935826867317  2.6441746969409068
945.081  4.7653415221551052  -2.4301548421795904
965.369  -0.23937239472935407  -5.6924558461429635
985.658  -5.5607952605720365  -2.8030770767413684
1005.95  -6.3252390823376974  3.3761700053624253
1026.23  -0.27030418465121614  8.8896096944466958
1046.52  10.829498927911439  5.3244887226400337
1066.81  10.727331773915754  -10.275976475424303
1087.1  -7.27854165032916  -14.441615604696285
1107.39  -16.579343936705644  1.6787652406073221
1127.68  -6.2434133331166954  16.002399855601656
1147.97  12.654349069164933  13.279739968450345
1168.26  20.634902721842348  -5.8677020165792326
1188.54  2.3071001302657259  -24.893719751923886
1208.83  -24.986651095748698  -10.588675088597814
1229.12  -18.885021686520616  19.960031443186686
1249.41  10.691797063654347  24.988512581093936
1269.7  27.782695350800388  0.96993109369100194
1289.99  13.868153465928009  -25.822333508191125
1310.28  -18.633871278474786  -25.071192999885891
1330.56  -33.022961552196257  7.89471989897475
1350.85  -4.7167308066759093  35.972296712691424
1371.14  32.241123286295057  16.501982637927931
1391.43  26.712623386091455  -22.144450408658315
1411.72  -7.238318642727064  -33.328017662099455
1432.01  -33.881374885828414  -9.2567608127099881
1452.3  -24.774724990634024  29.566520456317587
1472.58  19.381177769134755  35.392827815578329
1492.87  39.941093504830427  -4.8005590496173314
1513.16  11.803879651158187  -37.855920419598093
1533.45  -29.552155540491796  -26.852787924268799
1553.74  -36.549520845674785  15.720711354207277
1574.03  -1.7318264059697683  40.166189028629432
1594.32  36.263009894985956  19.663069960264426
1614.6  34.950849969235371  -26.362301186784762
1634.89  -12.226902399519064  -43.974510671594473
1655.18  -44.100811159920603  -4.4422146511903025
1675.47  -21.582715409241839  36.306866062438139
1695.76  22.380164613438112  35.535366500320293
1716.05  43.305452601115746  -4.4165989753511994
1736.34  13.344632447451227  -43.394639107584204
1756.62  -35.358883319702286  -29.460842999321283
1776.91  -40.364981415143028  19.9132636200032
1797.2  1.2633798562368159  45.58417135540266
1817.49  41.989112153019157  16.662674456899431
1837.78  32.334466748091408  -31.090555088633355
1858.07  -14.494636706477124  -42.325007656661633
1878.36  -45.494049771993176  -5.1743240076464145
1898.64  -23.782327174324433  41.868615373801831
1918.93  30.888883044848768  37.560661258321012
1939.22  44.785874068688095  -13.424646723138563
1959.51  6.8988829707389518  -44.515234349067619
1979.8  -38.061951374192084  -25.212008374442117
2000.09  -39.603344859943569  24.979766458144351
2020.38  7.8052251771426446  46.690159124105747
2040.66  46.156319914662284  11.236008564960757
2060.95  28.820422946572368  -37.884344866971965
2081.24  -23.706898104836263  -41.345597706738999
2101.53  -46.726137103203683  5.3258741983420892
2121.82  -14.109828207937019  43.881667224624415
2142.11  33.848998859647061  31.343044682316499
2162.4  43.441085055250817  -18.110405668542764
2182.68  0.03418825246091519  -48.249715394865838
2202.97  -44.838583929108033  -18.11754589716654
2223.26  -33.708581259737905  33.142201338627785
2243.55  16.554580083730894  43.713582306830546
2263.84  47.277657025444157  2.9346513589320438
2284.13  21.685947638948942  -42.222962671440818
2304.42  -30.172775701387266  -36.35647694491071
2324.7  -45.140265094536332  12.903575544625559
2344.99  -6.2308667587991629  46.664345691651675
2365.28  40.087782212296787  24.067670533953198
2385.57  37.603642186152214  -26.817246433885188
2405.86  -7.9713943364153677  -44.731027900361369
2426.15  -44.088064323072778  -11.18945128904419
2446.44  -28.95593881292465  35.379655104385961
2466.72  21.536504798820005  41.332237081173531
2487.01  45.870897062225147  -2.8918447864166672
2507.3  16.743198321917475  -42.282610615595843
2527.59  -31.297232705067689  -33.384371330051664
2547.88  -43.924483179231324  14.767981432189744
2568.17  -4.7150744022026192  46.078691857305543
2588.46  40.015325553028951  23.790489020792776
2608.74  38.161224721168558  -26.438744652087987
2629.03  -7.4197047313628399  -45.636785574622351
2649.32  -45.364374440011623  -12.999808234548968
2669.61  -30.726452365438476  36.043106617357857
2689.9  19.596364852398171  43.145683569856949
2710.19  47.854225192478033  0.8050544590186971
2730.48  20.754279473862233  -43.46718633838092
2750.77  -31.081420015772085  -37.609367467541013
2771.05  -47.208604399900914  13.07805216057498
2791.34  -7.5815664676271588  47.665935146069323
2811.63  39.980965605169828  26.504852453963267
2831.92  39.830697127062443  -24.502349234316693
2852.21  -5.1843196165195256  -44.937321292287528
2872.5  -41.325948689152433  -15.501031723688399
2892.79  -32.505534473187318  30.094517349336719
2913.07  13.453532290766985  42.302825154186451
2933.36  43.47466326823421  5.6921958601804983
2953.65  22.688464818164054  -35.584542617590351
2973.94  -20.50963401400627  -35.085200656881774
2994.23  -40.537639874891696  1.716402806160497
3014.52  -16.375375846073108  37.292843454304233
3034.81  26.403087758522933  31.00075930034847
3055.09  38.837299146211627  -10.347250426004106
3075.38  7.4843318402749555  -38.445891738694414
3095.67  -30.062586385195232  -23.101470762886777
3115.96  -33.793221278700777  15.543091805501522
3136.25  -1.6305222019255072  36.88093737759943
3156.54  31.647096735169661  18.559670306974745
3176.83  31.615864996832407  -19.932000907975361
3197.11  -3.5024373139344158  -37.811088126708675
3217.4  -35.859333949625452  -12.822979985991957
3237.69  -27.058546754603327  25.771982038424927
3257.98  10.040635803223765  36.638629418687273
3278.27  38.113218650808236  7.9819397846554541
3298.56  25.224986613159999  -31.814999609473553
3318.85  -17.769644081804064  -37.587444436990332
3339.13  -42.753466097820386  -0.75666797530527008
3359.42  -21.147046141440811  38.18036931251298
3379.71  22.691461613146799  39.227510124671362
3400  49.377303192389846  8.3477415143588871
