# Result: 'acouPressure' on node(s) 'Outlet' number #123488
# f (Hz)  real (Pa)  imag (Pa)  
# ---------------------------------------------------------------------------
377  -18.830242665097654  7.2002633760132673
397.289  -3.7052282451236995  17.662471966993078
417.577  11.199766669196308  12.769137267591667
437.866  17.492932127702982  -1.2382085812367383
458.154  9.4609211430370497  -16.427948076632791
478.443  -10.286910042865927  -17.754761774659869
498.732  -19.327613926813413  0.99597353283113343
519.02  -7.2217150469043423  15.420360398058936
539.309  6.9900153703573578  12.193904923720304
559.597  12.491776589117412  1.9618401735178774
579.886  9.1933623210440309  -7.2995571015345941
600.174  -0.39502695289894529  -11.373621245014146
620.463  -9.7063428333526751  -6.8846987720358079
640.752  -10.257185283780977  3.7018299710914375
661.04  -2.0666381926048412  8.5491248095076191
681.329  3.693432828714772  5.9159920959967307
701.617  6.4326049165105754  1.7636921784187518
721.906  5.6929731267875994  -2.8417329147324351
742.195  2.0855131338397026  -7.0969751011022657
762.483  -4.6563389685496226  -6.2038097535949923
782.772  -7.5673756550060389  -0.036606389556304283
803.06  -4.5405749670836428  4.2916319627725761
823.349  -0.88593983583312275  6.0551432083836829
843.638  3.8489094020671626  6.0236702227698373
863.926  8.5624014488013618  1.6922526276045466
884.215  7.1585427137340814  -6.6128813672625766
904.503  -1.5985506709184021  -10.436756017837723
924.792  -8.5769206993349929  -5.63563164596835
945.081  -10.621831450836156  2.1122318807688463
965.369  -6.7512235664806859  10.178219247511766
985.658  4.4826543025927705  13.884695019167594
1005.95  15.621184944331244  5.826925353996443
1026.23  13.647214816286818  -10.16740804455392
1046.52  0.19239297078871487  -17.281142702014677
1066.81  -12.947586427632627  -11.684923290152152
1087.1  -18.580258238532785  2.0545080176342156
1107.39  -11.253616413195038  17.701435610823044
1127.68  8.1202491420910263  21.830168642938798
1147.97  23.987333208081385  5.0886675051606964
1168.26  18.997678223862419  -15.882019584458792
1188.54  -1.1680469408273941  -24.787890248819661
1208.83  -20.137605297769927  -15.197091768503563
1229.12  -26.057886048622482  5.7683634496227398
1249.41  -12.16372242939965  26.316053723484281
1269.7  15.826979448955107  26.821302299917058
1289.99  30.820806675786105  2.8292544889028259
1310.28  20.683167276132913  -21.725691295216482
1330.56  -3.8163526226582576  -30.52559861718807
1350.85  -27.132372543509714  -17.359358294272123
1371.14  -31.7613228960026  11.770408498614636
1391.43  -9.1801754550067134  33.620212122659893
1411.72  21.401040357347053  27.534033398708516
1432.01  34.151964422410401  -0.89865947321281237
1452.3  20.636713746870655  -27.337008036369951
1472.58  -8.1289659118936743  -32.879196083034955
1492.87  -31.317899979874568  -15.045018503727004
1513.16  -32.642232436974567  16.155069819791223
1533.45  -6.2673026396253846  37.102692618982232
1553.74  25.648571731601756  25.912629272448012
1574.03  35.211105330590087  -3.4539417909955392
1594.32  19.735765566097797  -29.035310615051799
1614.6  -10.297654364246384  -34.809770983980805
1634.89  -34.659963215700245  -13.43535940598565
1655.18  -31.875350067918664  19.737140718293183
1675.47  -3.5239518510184364  36.939395504811955
1695.76  27.252899968529455  25.21967515728376
1716.05  35.518545562164775  -5.6511200293839883
1736.34  17.297889492551693  -30.67813231114474
1756.62  -12.473545173569518  -33.93142663441693
1776.91  -35.077978676931053  -11.703911557469688
1797.2  -31.007210823486144  21.800571474046126
1817.49  -0.36029032742539852  36.991734135880769
1837.78  27.794514632100181  23.377516942974658
1858.07  35.621301636380991  -6.6788064577877266
1878.36  17.117840797615568  -32.773293827614943
1898.64  -16.120035235344744  -34.50215462779633
1918.93  -37.507575144623132  -7.9438916750704198
1939.22  -29.392650306656769  25.148320991271312
1959.51  2.6637170242149444  38.616956021062109
1979.8  32.622240129071855  20.909431744478301
2000.09  36.464185766694719  -12.172306145335494
2020.38  13.459891165927239  -36.941482649056169
2040.66  -22.42574034380192  -34.646425343819473
2060.95  -41.864943468340144  -1.8952854264493975
2081.24  -25.701753495059748  32.472914455422739
2101.53  9.5821223532619193  39.765427249327061
2121.82  37.538558385680901  17.306209406610066
2142.11  37.269423436634128  -20.057657538880832
2162.4  6.1087078767100991  -42.272489061595046
2182.68  -30.453819697929951  -30.591162725881802
2202.97  -43.252515795523763  6.1369886328340071
2223.26  -20.528496735776695  38.742865062781874
2243.55  19.081951172081329  38.952204432267436
2263.84  42.73185698095822  9.4921440093665002
2284.13  34.033118888576077  -27.826322836147238
2304.42  -2.4718669970066136  -45.114123501245921
2324.7  -38.492103365554463  -24.444059454587201
2344.99  -42.251768698669686  16.187041891033793
2365.28  -12.923007959218252  43.034713850821547
2385.57  26.469483870222323  37.040836566905057
2405.86  46.248853941858748  1.7147444408382087
2426.15  29.383528899968042  -36.366184131323948
2446.44  -11.820326299778467  -46.223060122257429
2466.72  -45.025867082396729  -18.363125537526958
2487.01  -40.844050239824774  25.270569654175269
2507.3  -4.8652449072471731  47.080143773755253
2527.59  33.929531714501486  33.053633176693424
2547.88  47.770052155024828  -6.2443579092305912
2568.17  24.390798976046796  -42.381109593411878
2588.46  -19.260175696915827  -45.25917709982987
2608.74  -47.470984460852534  -12.378974730202163
2629.03  -38.164944147439769  30.986406107262365
2649.32  -0.72195137804100729  49.372832615371763
2669.61  38.185874388145301  31.2631941828392
2689.9  47.999882278525874  -11.03216078347095
2710.19  21.65529783576703  -45.250774494697168
2730.48  -22.291711298755455  -44.987510002000569
2750.77  -49.623802914162482  -9.5089789712944484
2771.05  -37.82335644933562  32.457339389964403
2791.34  1.6954331287991193  49.655343878553161
2811.63  39.779846862569926  30.673433219481439
2831.92  49.327064150265358  -12.846489659804963
2852.21  19.966162248785903  -46.907063554840114
2872.5  -24.311323669901792  -44.580513189823705
2892.79  -49.827626430297535  -8.7270331194033197
2913.07  -37.966396789577239  32.678265223216698
2933.36  1.9792465506204715  50.767022814917588
2953.65  40.713703318256563  29.593819910753624
2973.94  48.661600660965711  -13.596089553909408
2994.23  19.470738978517474  -46.780098515630712
3014.52  -24.742864900614705  -43.340823240697802
3034.81  -48.32164533944978  -7.5746051095585551
3055.09  -36.030503287600652  32.287644221981672
3075.38  2.4832595942931821  48.366411730295617
3095.67  39.492119207488557  27.89991407099571
3115.96  45.671821056173883  -14.080622170095351
3136.25  16.902038077852726  -43.434823890617189
3156.54  -22.506382185511342  -39.406951323731498
3176.83  -43.923921192565849  -7.2814268427438087
3197.11  -33.29683843944057  28.867294590658599
3217.4  1.6684730652435529  43.477588084490144
3237.69  34.597803429984211  26.065791662199757
3257.98  41.660860673472513  -10.364565770051227
3278.27  18.083911449748076  -38.63079037926709
3298.56  -17.808887949370924  -37.906261655474381
3318.85  -39.615086977796061  -11.479636589720217
3339.13  -36.079772820195274  22.473057517612641
3359.42  -7.9331410804616596  44.095874524618552
3379.71  29.145073427431409  38.617141671584243
3400  53.355815120070204  9.8925470099130717
