# Result: 'acouPressure' on node(s) 'Outlet' number #123488
# f (Hz)  real (Pa)  imag (Pa)  
# ---------------------------------------------------------------------------
377  40.668716140880107  10.774105765819606
397.289  35.959388111470922  -15.49972351500451
417.577  18.863042994440644  -35.530540002431067
437.866  -9.2429032139640412  -35.639572795924494
458.154  -27.326973885649235  -22.517798952134541
478.443  -35.305108970111704  -0.10013136159247714
498.732  -25.773566505474584  22.254244556931553
519.02  -6.9578805723884489  30.819255968006456
539.309  13.957832480826976  29.63811731717287
559.597  28.109015227815085  12.084037700921732
579.886  29.166773052996458  -6.3187574347659847
600.174  18.434341490442712  -23.707767481787521
620.463  -1.2781617408607286  -29.425419114196401
640.752  -17.101766128498429  -21.081993247531063
661.04  -27.439551042323231  -6.3067844307815069
681.329  -23.137774132489234  13.256662865561466
701.617  -9.9379869180108198  22.880996909876679
721.906  5.7253992054880047  24.349460260075759
742.195  19.790042560979749  13.582443997142596
762.483  21.694802666262301  -0.77237071245826738
782.772  17.139693535919594  -13.596819646915886
803.06  3.3119462213657318  -19.81407272449465
823.349  -8.2841382849323821  -15.944649025208562
843.638  -15.373279861571319  -7.6046964869002105
863.926  -14.981216146987554  3.5333468576998701
884.215  -9.2950159073378344  9.8024982668191125
904.503  -2.4829782254075279  13.231979505746443
924.792  5.9395121143989194  10.276365953804676
945.081  8.7076464399438187  4.9860166080648503
965.369  9.5439374995106032  0.050878113295922338
985.658  7.3961001166944609  -4.7550067505014502
1005.95  3.7860736434677182  -6.5436661254995778
1026.23  0.14251603106744368  -7.8862814077279184
1046.52  -3.6122303903908457  -6.6452729230982408
1066.81  -5.7910956687713329  -4.231568803446164
1087.1  -7.6513007716238262  -1.15417981080979
1107.39  -7.0928596097337104  3.1659027713315626
1127.68  -5.1744010429134404  6.1208962973476506
1147.97  -1.5303518717866178  9.6060704041245373
1168.26  3.9348708235549519  9.3347134252929393
1188.54  8.8914287524974132  6.4783445858793254
1208.83  12.74268639407847  0.59900886615642557
1229.12  11.220140454266986  -7.2663949745096383
1249.41  6.2026087615618408  -13.25104933013362
1269.7  -3.3801955624481099  -16.416923427624948
1289.99  -13.248722710830561  -11.86573504432045
1310.28  -18.353246962982912  -2.4735001807374739
1330.56  -17.946268171465686  10.391501204579781
1350.85  -7.6489863621071734  19.821876330029731
1371.14  5.3679867913781685  22.09094883687726
1391.43  18.81160663419967  15.538005036825608
1411.72  25.045789494026966  0.28132448335394
1432.01  20.84138270439411  -15.012977440418014
1452.3  8.3438628765847742  -26.501626966625651
1472.58  -10.380045355634564  -26.026409953445558
1492.87  -24.224938181265657  -14.990198149949265
1513.16  -29.553649113814306  2.8599197499829216
1533.45  -21.928538559314109  21.023386763695939
1553.74  -5.039066830357938  29.858313752281564
1574.03  14.50973639778762  28.423949561470348
1594.32  29.108996513899235  12.482435589880605
1614.6  31.2138773594471  -7.0962433252733277
1634.89  20.984282251605137  -25.07315882353123
1655.18  1.055412912736184  -33.07980848529553
1675.47  -18.99816660440791  -26.492386548279097
1695.76  -31.921434331692087  -10.092559574857807
1716.05  -31.259762545102447  11.645448832826343
1736.34  -17.527065318507546  27.883693809622059
1756.62  2.7339419518053178  33.559598726705232
1776.91  23.115179180645356  24.848235223016246
1797.2  31.481277295072438  4.8761119364928636
1817.49  29.470385000682352  -15.176169433235604
1837.78  13.708895035587943  -30.321949516071427
1858.07  -6.7011681228494835  -32.266583372860275
1878.36  -24.73926556293846  -21.160876940780366
1898.64  -33.052931491544527  -1.3724589675564538
1918.93  -26.134880648428574  18.85827744126199
1939.22  -10.251209784876135  30.550587435549424
1959.51  10.756730834835322  30.999077624995298
1979.8  26.841582120481146  17.303100610164179
2000.09  32.444940467037597  -1.7295836837073666
2020.38  25.128897146630642  -21.863337195019191
2040.66  6.1778983704608086  -32.224722937313487
2060.95  -14.158094908083712  -29.723788396662595
2081.24  -30.691044393632009  -15.005479754157113
2101.53  -32.933329395153791  6.9671926074735611
2121.82  -22.143069429288513  25.412830850670861
2142.11  -1.7214822005656618  34.404669146671431
2162.4  20.001829361571492  27.699492752774866
2182.68  32.302169825167525  10.065936736425714
2202.97  32.677486284741242  -11.963413585177779
2223.26  18.203422806303838  -29.352926184478036
2243.55  -3.4200941381971761  -34.323468700072745
2263.84  -23.852413832171912  -25.90846412449924
2284.13  -35.10815313924482  -5.5104815718122051
2304.42  -30.903704409179618  17.094986838704163
2324.7  -14.738836939793533  32.826591922951572
2344.99  9.1950189808981939  34.945930805554553
2365.28  28.17863714257291  22.168909544067859
2385.57  36.164603616516089  0.4955602640800244
2405.86  29.386918471001835  -21.367782311001378
2426.15  10.684528297783171  -34.388980959205739
2446.44  -11.522934664144945  -35.77791938303551
2466.72  -33.040790604304334  -21.848251672676717
2487.01  -39.787813149000044  3.2735669900058904
2507.3  -30.049149823186774  27.08958505707913
2527.59  -7.6682969919473782  40.676683815540365
2547.88  19.259870668078882  37.233014171006126
2568.17  37.871008565699718  18.850908484097083
2588.46  42.896847981422063  -8.5854254431525998
2608.74  29.009889217700337  -33.225613641588154
2629.03  3.2505343219244822  -44.627076675491942
2649.32  -24.697207252783254  -38.327319703549065
2669.61  -43.649079678076831  -15.614648411156253
2689.9  -44.463483217388735  13.645650375577841
2710.19  -28.076427727213932  38.442228428769241
2730.48  1.0753743289117466  48.14086853537416
2750.77  30.151938440132362  38.15575647069651
2771.05  47.360844802297137  12.488210652844947
2791.34  46.117471794222197  -18.926349386499727
2811.63  25.495619084548323  -42.63393834304069
2831.92  -4.6104392083220809  -49.854253388940919
2852.21  -34.250612038426723  -37.581127216497372
2872.5  -50.08269080382847  -9.7921810567975172
2892.79  -46.050833517755827  22.268773611380354
2913.07  -24.412858832706284  45.666628932759224
2933.36  8.3774075433987907  51.59457802339238
2953.65  36.957356771446292  36.579011732615747
2973.94  52.512822919845902  7.5585982543478005
2994.23  46.572722970570936  -25.936536776668255
3014.52  21.742887826315943  -48.635290754677996
3034.81  -11.665248211898129  -51.962838544655746
3055.09  -41.019466623800398  -34.763015107416621
3075.38  -53.272426296724817  -2.8893686379848029
3095.67  -44.655217112796898  29.150360991930494
3115.96  -17.947839399140378  50.501267520197104
3136.25  16.072387084398041  50.874339768813272
3156.54  42.782919419719676  30.579387711835555
3176.83  52.664418601412393  -1.0065556661378559
3197.11  41.212695076301905  -33.205040748853314
3217.4  12.519894119392902  -50.397808009243704
3237.69  -20.15626562022489  -48.536161018794537
3257.98  -45.947585969513341  -26.00247618517686
3278.27  -52.273903217075478  7.7079066504098037
3298.56  -36.287522773184484  38.028918993851775
3318.85  -5.012866657942098  52.771660681010104
3339.13  30.182084468264943  43.585911516475804
3359.42  50.15443747783862  13.439036769108345
3379.71  44.853508781922521  -23.302898594028523
3400  13.457217825237372  -44.323491172506792
