# Result: 'acouPressure' on node(s) 'Outlet' number #123488
# f (Hz)  real (Pa)  imag (Pa)  
# ---------------------------------------------------------------------------
377  -31.311082040294121  -30.102941337569316
397.289  -39.888981009725732  20.346783792617799
417.577  6.3612767512809789  41.461120054728632
437.866  36.30451369269587  8.63025107982034
458.154  22.170559116335792  -26.852591988817419
478.443  -14.148635135886323  -30.956846023003305
498.732  -34.213484239976808  -0.095575455223484457
519.02  -13.814949087829648  31.496803343234635
539.309  23.919912471287358  24.748981099619201
559.597  30.958326971238499  -13.123307216962663
579.886  -0.64129669636549147  -32.041060917985192
600.174  -27.156132510058093  -10.65003950325994
620.463  -21.320291940452449  18.012457339969178
640.752  6.2820771260977164  27.475449246316966
661.04  29.262269816799247  5.3219974148770142
681.329  14.719861170388569  -26.27185526109967
701.617  -18.502359591863243  -21.235940368174482
721.906  -24.405019825142368  7.5365622440699473
742.195  -3.1967728630049828  23.369458614576271
762.483  18.561075038535712  12.654816281738253
782.772  19.214604986830437  -10.748159527526314
803.06  -2.0033454903571979  -21.651404865936062
823.349  -20.620804196125622  -5.6236782081325014
843.638  -11.071562883618672  15.728382951278125
863.926  8.1453472359313857  13.869048207084866
884.215  14.083306798351426  -0.30855579034848041
904.503  6.681834733476288  -11.418995491925575
924.792  -6.6814931439067431  -10.636495944104528
945.081  -12.025312074720278  0.95274473796241232
965.369  -3.990089973724352  10.265951292632751
985.658  6.163323846564194  7.3455138343084894
1005.95  7.8720992529573568  -1.0358985073749631
1026.23  3.5229737499428566  -6.5684775833750155
1046.52  -2.7956264054353697  -6.8753026848087053
1066.81  -7.6002600162135829  -1.6583550681018444
1087.1  -5.5827158915038968  5.9969202400756823
1107.39  2.5977733231091218  7.6960934225221225
1127.68  7.6371251891142764  1.9658669349014184
1147.97  6.4520888539264272  -5.6007576951553082
1168.26  -0.60732128929742402  -9.0584955058928838
1188.54  -9.4453471043032504  -4.8540844878668032
1208.83  -10.163763571962171  7.0134670135578343
1229.12  2.0427911318388228  13.297094474251868
1249.41  13.664682807751529  4.2851803353095015
1269.7  10.494390701271687  -10.764001114292734
1289.99  -4.2017158279641507  -15.346461907142999
1310.28  -16.747599714504645  -4.0891847743270056
1330.56  -12.369249498749362  15.149637879523619
1350.85  9.9083309494102778  19.03165674330042
1371.14  22.883401763577957  -1.9214108409114246
1391.43  7.8985091221959713  -21.489646099590839
1411.72  -15.843008401279038  -16.700884619662691
1432.01  -23.196517720705945  6.9214763098298882
1452.3  -4.4612545095610754  25.713670016173143
1472.58  22.969637175725087  15.466049874134505
1492.87  24.023976252581139  -15.735190683361026
1513.16  -4.7681658688782198  -28.778479153000909
1533.45  -28.360671147175562  -7.5652922497018942
1553.74  -18.815239144497909  22.242949884308935
1574.03  11.535955661817177  27.159932338154992
1594.32  30.262246396309067  1.421669021045139
1614.6  14.914051213122342  -28.514539778046025
1634.89  -21.026299842561176  -25.457425590298318
1655.18  -31.269471191025559  9.2508018706162787
1675.47  -4.480863338872882  31.382656053325302
1695.76  25.97602831563032  17.616312920450181
1716.05  27.8211950777924  -15.246373776796286
1736.34  -2.5611095994515511  -32.263185723184648
1756.62  -31.230113432534363  -11.44092955563068
1776.91  -23.08737728997006  23.985081397419258
1797.2  12.35538279614938  30.824082505151626
1817.49  32.239575896123263  0.89073646333072898
1837.78  14.689391081895495  -28.319583066875079
1858.07  -18.394493946911265  -25.631469755847213
1878.36  -31.063230122011927  5.6851922946574893
1898.64  -7.789402689081343  31.613984777376608
1918.93  26.285735911731589  19.640612360610426
1939.22  27.894898430383709  -15.886520715205016
1959.51  -2.0701875956339282  -31.39340370106698
1979.8  -29.019460214895442  -11.667828956310801
2000.09  -23.789219433416509  21.100938577447653
2020.38  9.5626188200585087  30.962675238718333
2040.66  32.650037050514179  4.1908478891765224
2060.95  17.572211860565876  -28.401245805971616
2081.24  -19.283273116186855  -27.688573282013873
2101.53  -32.998062517109183  6.3206967649755157
2121.82  -8.1353299855837982  31.963876839066021
2142.11  25.608006779470688  20.926798803990021
2162.4  30.524576074573091  -14.373424677665037
2182.68  -0.83404312122114577  -34.451489155004019
2202.97  -32.443805758412019  -13.078012761362777
2223.26  -24.827988176136756  23.765456284967911
2243.55  11.337460588464582  32.140698122798852
2263.84  34.081289947732778  3.8988717300810221
2284.13  18.130430147961938  -29.710275149582685
2304.42  -19.966076318040717  -29.234142050690551
2324.7  -35.237965461366834  6.0580697095923579
2344.99  -8.9304932570877948  35.094006505471413
2365.28  28.560674413903332  22.465195594269957
2385.57  31.896925155234413  -16.800488906694795
2405.86  -0.99647907364394228  -35.308767696293721
2426.15  -32.056879268324238  -15.268127230534068
2446.44  -29.641992835270035  23.080268300342492
2466.72  9.7834854931993718  38.798021735341614
2487.01  40.230357376383324  6.0804299464155473
2507.3  22.077262918521463  -34.055062971116278
2527.59  -21.476741975579944  -34.763712579754717
2547.88  -41.470421487959335  4.6835349081740034
2568.17  -13.665381833951262  40.285225865593752
2588.46  31.423555781775285  29.918965314793368
2608.74  41.375691792724432  -16.128863302435562
2629.03  2.6723386314981816  -45.434704512089262
2649.32  -40.94255799059119  -21.337688709944867
2669.61  -36.54246322441508  28.132179336031186
2689.9  9.4793474398389534  45.29124513456361
2710.19  45.669967610547836  11.502725345205553
2730.48  30.145307283774233  -37.733644744068101
2750.77  -21.965765851034782  -44.142817645160981
2771.05  -49.522672566444903  1.4495070914792907
2791.34  -19.827126039482437  44.525943636790345
2811.63  32.79069274999123  37.563416319798321
2831.92  48.129199486129181  -11.760095845924297
2852.21  9.4561327981201231  -48.792334517771955
2872.5  -40.455267947291659  -31.187891130520924
2892.79  -45.955692425113362  23.751555276207732
2913.07  2.0681408545673152  51.472153236804424
2933.36  48.205271396702322  20.594203009430757
2953.65  37.970835534686955  -34.33000282319481
2973.94  -12.925764999596266  -49.949412131015542
2994.23  -51.817307199654252  -10.44512581413494
3014.52  -31.501400390435585  43.430057143295095
3034.81  26.172053549288741  47.503077341554693
3055.09  53.55422989649081  -4.4321346979546137
3075.38  18.600565103922172  -49.736202432835846
3095.67  -35.248040713581155  -38.468620540632436
3115.96  -50.995578167768038  15.795715360406005
3136.25  -7.1847887534049892  52.553579875511907
3156.54  44.521645584735111  29.19197585421524
3176.83  45.216552316768201  -28.127135129378452
3197.11  -6.6820485050606901  -52.983239004438303
3217.4  -50.40664045516958  -15.485980102431986
3237.69  -34.904026458523816  38.305414136774857
3257.98  19.415181569302277  48.289302879318448
3278.27  52.858341301475249  2.7580850368737511
3298.56  24.062155901119201  -48.05380505410654
3318.85  -34.822521532779767  -40.684886803992846
3339.13  -50.370935303682394  16.691557250433529
3359.42  -3.2697179903785254  51.764852215088389
3379.71  46.209530314122588  20.087656256163967
3400  29.640789272047009  -35.126042564956045
